Serial = 133
Sensor = 006_HF
Static gain = 800.0
Magnitude unit = mV/nT
Phase unit = radians
Chopper = False

CALIBRATION DATA
+1.0000e+00  +2.2505e-01  +2.0081e+00
+1.0393e+00  +2.3719e-01  +1.9779e+00
+1.0801e+00  +2.4974e-01  +1.9475e+00
+1.1225e+00  +2.6260e-01  +1.9169e+00
+1.1665e+00  +2.7591e-01  +1.8858e+00
+1.2123e+00  +2.8950e-01  +1.8548e+00
+1.2599e+00  +3.0361e-01  +1.8233e+00
+1.3094e+00  +3.1800e-01  +1.7915e+00
+1.3608e+00  +3.3265e-01  +1.7601e+00
+1.4142e+00  +3.4776e-01  +1.7284e+00
+1.4697e+00  +3.6305e-01  +1.6965e+00
+1.5274e+00  +3.7873e-01  +1.6645e+00
+1.5873e+00  +3.9471e-01  +1.6323e+00
+1.6496e+00  +4.1087e-01  +1.6002e+00
+1.7144e+00  +4.2746e-01  +1.5680e+00
+1.7817e+00  +4.4408e-01  +1.5359e+00
+1.8516e+00  +4.6078e-01  +1.5037e+00
+1.9243e+00  +4.7765e-01  +1.4715e+00
+1.9999e+00  +4.9454e-01  +1.4396e+00
+2.0784e+00  +5.1147e-01  +1.4075e+00
+2.1600e+00  +5.2859e-01  +1.3754e+00
+2.2448e+00  +5.4552e-01  +1.3439e+00
+2.3329e+00  +5.6243e-01  +1.3119e+00
+2.4245e+00  +5.7950e-01  +1.2804e+00
+2.5196e+00  +5.9645e-01  +1.2489e+00
+2.6185e+00  +6.1309e-01  +1.2178e+00
+2.7213e+00  +6.2966e-01  +1.1869e+00
+2.8282e+00  +6.4601e-01  +1.1563e+00
+2.9392e+00  +6.6215e-01  +1.1256e+00
+3.0546e+00  +6.7793e-01  +1.0947e+00
+3.1745e+00  +6.9381e-01  +1.0661e+00
+3.2991e+00  +7.0911e-01  +1.0360e+00
+3.4286e+00  +7.2373e-01  +1.0069e+00
+3.5632e+00  +7.3874e-01  +9.7865e-01
+3.7031e+00  +7.5236e-01  +9.5023e-01
+3.8484e+00  +7.6606e-01  +9.2195e-01
+3.9995e+00  +7.7937e-01  +8.9469e-01
+4.1565e+00  +7.9195e-01  +8.6749e-01
+4.3197e+00  +8.0454e-01  +8.4097e-01
+4.4893e+00  +8.1640e-01  +8.1476e-01
+4.6655e+00  +8.2778e-01  +7.8938e-01
+4.8486e+00  +8.3865e-01  +7.6427e-01
+5.0390e+00  +8.4931e-01  +7.3975e-01
+5.2368e+00  +8.5891e-01  +7.1577e-01
+5.4423e+00  +8.6855e-01  +6.9238e-01
+5.6560e+00  +8.7786e-01  +6.6954e-01
+5.8780e+00  +8.8655e-01  +6.4734e-01
+6.1088e+00  +8.9496e-01  +6.2590e-01
+6.3486e+00  +9.0280e-01  +6.0447e-01
+6.5978e+00  +9.1025e-01  +5.8395e-01
+6.8568e+00  +9.1706e-01  +5.6375e-01
+7.1260e+00  +9.2358e-01  +5.4404e-01
+7.4057e+00  +9.2973e-01  +5.2491e-01
+7.6964e+00  +9.3564e-01  +5.0704e-01
+7.9985e+00  +9.4083e-01  +4.8901e-01
+8.3125e+00  +9.4644e-01  +4.7189e-01
+8.6388e+00  +9.5123e-01  +4.5506e-01
+8.9780e+00  +9.5578e-01  +4.3862e-01
+9.3304e+00  +9.6049e-01  +4.2305e-01
+9.6967e+00  +9.6419e-01  +4.0770e-01
+1.0077e+01  +9.6787e-01  +3.9259e-01
+1.0473e+01  +9.7104e-01  +3.7865e-01
+1.0884e+01  +9.7461e-01  +3.6506e-01
+1.1311e+01  +9.7735e-01  +3.5215e-01
+1.1755e+01  +9.8059e-01  +3.3908e-01
+1.2217e+01  +9.8328e-01  +3.2599e-01
+1.2696e+01  +9.8516e-01  +3.1316e-01
+1.3195e+01  +9.8715e-01  +3.0267e-01
+1.3713e+01  +9.9036e-01  +2.9104e-01
+1.4251e+01  +9.9225e-01  +2.7932e-01
+1.4810e+01  +9.9226e-01  +2.6990e-01
+1.5392e+01  +9.9536e-01  +2.5997e-01
+1.7955e+01  +1.0012e+00  +2.2485e-01
+1.8660e+01  +1.0022e+00  +2.1330e-01
+1.9392e+01  +1.0026e+00  +2.0690e-01
+2.0153e+01  +1.0044e+00  +1.9758e-01
+2.0945e+01  +1.0058e+00  +1.9041e-01
+2.1767e+01  +1.0058e+00  +1.8190e-01
+2.2621e+01  +1.0078e+00  +1.7568e-01
+2.3509e+01  +1.0080e+00  +1.6796e-01
+2.4432e+01  +1.0089e+00  +1.6336e-01
+2.5391e+01  +1.0101e+00  +1.5585e-01
+2.6388e+01  +1.0095e+00  +1.5001e-01
+2.7424e+01  +1.0112e+00  +1.4479e-01
+2.8500e+01  +1.0097e+00  +1.3871e-01
+2.9619e+01  +1.0118e+00  +1.3257e-01
+3.0782e+01  +1.0119e+00  +1.2815e-01
+3.1990e+01  +1.0118e+00  +1.2411e-01
+3.3246e+01  +1.0127e+00  +1.1742e-01
+3.4551e+01  +1.0147e+00  +1.1341e-01
+3.5907e+01  +1.0134e+00  +1.0811e-01
+3.7317e+01  +1.0118e+00  +1.0572e-01
+3.8782e+01  +1.0135e+00  +1.0051e-01
+4.0304e+01  +1.0142e+00  +9.8930e-02
+4.1886e+01  +1.0146e+00  +9.1714e-02
+4.3531e+01  +1.0204e+00  +9.1730e-02
+4.5240e+01  +1.0137e+00  +8.3453e-02
+5.6997e+01  +1.0108e+00  +5.9246e-02
+5.9235e+01  +1.0247e+00  +6.2387e-02
+6.1560e+01  +1.0194e+00  +5.8908e-02
+6.3976e+01  +1.0147e+00  +5.6983e-02
+6.6488e+01  +1.0125e+00  +4.8096e-02
+6.9098e+01  +1.0158e+00  +4.6679e-02
+7.1810e+01  +1.0170e+00  +4.6563e-02
+7.4629e+01  +1.0156e+00  +4.6508e-02
+7.7559e+01  +1.0141e+00  +4.3787e-02
+8.0604e+01  +1.0175e+00  +4.1045e-02
+8.3768e+01  +1.0168e+00  +3.7048e-02
+8.7056e+01  +1.0171e+00  +3.3256e-02
+9.0474e+01  +1.0152e+00  +3.0612e-02
+9.4025e+01  +1.0170e+00  +2.7635e-02
+9.7716e+01  +1.0144e+00  +3.1474e-02
+1.0155e+02  +1.0130e+00  +2.7714e-02
+1.0554e+02  +1.0210e+00  +2.2854e-02
+1.0968e+02  +1.0172e+00  +1.9701e-02
+1.1399e+02  +1.0166e+00  +2.1173e-02
+1.1846e+02  +1.0166e+00  +1.6366e-02
+1.2311e+02  +1.0173e+00  +1.5739e-02
+1.2794e+02  +1.0164e+00  +1.4325e-02
+1.3297e+02  +1.0181e+00  +1.2859e-02
+1.3819e+02  +1.0170e+00  +1.1479e-02
+1.4361e+02  +1.0182e+00  +3.3479e-03
+1.6120e+02  +1.0166e+00  +3.7740e-03
+1.6753e+02  +1.0168e+00  +7.5067e-04
+1.7410e+02  +1.0160e+00  -2.9741e-04
+1.8094e+02  +1.0181e+00  -2.8266e-03
+1.8804e+02  +1.0150e+00  -6.5775e-03
+1.9542e+02  +1.0167e+00  -5.9912e-03
+2.0309e+02  +1.0132e+00  -6.8191e-03
+2.1106e+02  +1.0172e+00  -1.1739e-02
+2.1935e+02  +1.0136e+00  -1.2612e-02
+2.2796e+02  +1.0159e+00  -1.4412e-02
+2.3691e+02  +1.0109e+00  -1.5717e-02
+2.6592e+02  +1.0138e+00  -1.7834e-02
+2.7636e+02  +1.0177e+00  -2.3006e-02
+2.8721e+02  +1.0172e+00  -2.3296e-02
+2.9848e+02  +1.0167e+00  -2.4514e-02
+3.1020e+02  +1.0174e+00  -3.0079e-02
+3.2237e+02  +1.0199e+00  -3.1503e-02
+3.3503e+02  +1.0172e+00  -3.8060e-02
+3.6185e+02  +1.0207e+00  -4.1665e-02
+3.7605e+02  +1.0167e+00  -4.0165e-02
+3.9082e+02  +1.0135e+00  -4.4750e-02
+4.0616e+02  +1.0159e+00  -4.5778e-02
+4.2210e+02  +1.0177e+00  -4.8246e-02
+4.3867e+02  +1.0182e+00  -5.3312e-02
+4.5589e+02  +1.0181e+00  -5.5872e-02
+4.7379e+02  +1.0141e+00  -5.6669e-02
+4.9239e+02  +1.0145e+00  -6.0166e-02
+5.1172e+02  +1.0146e+00  -6.5187e-02
+5.3181e+02  +1.0124e+00  -6.9146e-02
+5.5268e+02  +1.0179e+00  -7.1464e-02
+5.7438e+02  +1.0119e+00  -7.0525e-02
+5.9692e+02  +1.0124e+00  -7.5860e-02
+6.2036e+02  +1.0131e+00  -7.9058e-02
+6.4471e+02  +1.0138e+00  -7.9668e-02
+6.7002e+02  +1.0139e+00  -8.7178e-02
+6.9632e+02  +1.0126e+00  -9.1921e-02
+7.2366e+02  +1.0119e+00  -9.6173e-02
+7.5206e+02  +1.0131e+00  -9.8823e-02
+7.8159e+02  +1.0120e+00  -1.0254e-01
+8.1227e+02  +1.0131e+00  -1.0762e-01
+8.4415e+02  +1.0106e+00  -1.1389e-01
+8.7729e+02  +1.0096e+00  -1.1655e-01
+9.1173e+02  +1.0096e+00  -1.2245e-01
+9.4752e+02  +1.0104e+00  -1.2809e-01
+9.8472e+02  +1.0081e+00  -1.3137e-01
+1.0234e+03  +1.0078e+00  -1.3727e-01
+1.0635e+03  +1.0075e+00  -1.4470e-01
+1.1053e+03  +1.0070e+00  -1.4946e-01
+1.1487e+03  +1.0070e+00  -1.5566e-01
+1.1938e+03  +1.0060e+00  -1.6238e-01
+1.2406e+03  +1.0056e+00  -1.6837e-01
+1.2893e+03  +1.0040e+00  -1.7611e-01
+1.3400e+03  +1.0041e+00  -1.8326e-01
+1.3926e+03  +1.0021e+00  -1.9034e-01
+1.4472e+03  +9.9990e-01  -1.9865e-01
+1.5040e+03  +9.9914e-01  -2.0604e-01
+1.5631e+03  +9.9878e-01  -2.1406e-01
+1.6244e+03  +9.9742e-01  -2.2316e-01
+1.6882e+03  +9.9624e-01  -2.3159e-01
+1.7545e+03  +9.9453e-01  -2.4123e-01
+1.8233e+03  +9.9245e-01  -2.5170e-01
+1.8949e+03  +9.9044e-01  -2.6128e-01
+1.9693e+03  +9.8799e-01  -2.7237e-01
+2.0466e+03  +9.8680e-01  -2.8413e-01
+2.1270e+03  +9.8307e-01  -2.9464e-01
+2.2105e+03  +9.8051e-01  -3.0700e-01
+2.2972e+03  +9.7748e-01  -3.1929e-01
+2.3874e+03  +9.7487e-01  -3.3209e-01
+2.4811e+03  +9.7150e-01  -3.4567e-01
+2.5785e+03  +9.6762e-01  -3.6086e-01
+2.6797e+03  +9.6341e-01  -3.7531e-01
+2.7849e+03  +9.5873e-01  -3.9043e-01
+2.8943e+03  +9.5359e-01  -4.0794e-01
+3.0079e+03  +9.4813e-01  -4.2490e-01
+3.1260e+03  +9.4173e-01  -4.4296e-01
+3.2487e+03  +9.3478e-01  -4.6222e-01
+3.3762e+03  +9.2565e-01  -4.8239e-01
+3.5087e+03  +9.1604e-01  -5.0353e-01
+3.6465e+03  +9.0347e-01  -5.2630e-01
+3.7896e+03  +8.9053e-01  -5.4973e-01
+3.9384e+03  +8.7380e-01  -5.7403e-01
+4.0930e+03  +8.5392e-01  -5.9755e-01
+4.2537e+03  +8.2987e-01  -6.1998e-01
+4.4206e+03  +8.0160e-01  -6.3810e-01
+4.5942e+03  +7.7015e-01  -6.4871e-01
+4.7745e+03  +7.3774e-01  -6.4685e-01
+4.9619e+03  +7.0967e-01  -6.3043e-01
+5.1567e+03  +6.9213e-01  -6.0156e-01
+5.3592e+03  +6.8784e-01  -5.7158e-01
+5.5695e+03  +6.9478e-01  -5.5010e-01
+5.7882e+03  +7.0725e-01  -5.4208e-01
+6.0154e+03  +7.2060e-01  -5.4708e-01
+6.2515e+03  +7.3166e-01  -5.6112e-01
+6.4969e+03  +7.3922e-01  -5.8153e-01
+6.7520e+03  +7.4378e-01  -6.0620e-01
+7.0170e+03  +7.4478e-01  -6.3187e-01
+7.2925e+03  +7.4341e-01  -6.5926e-01
+7.5788e+03  +7.4015e-01  -6.8752e-01
+7.8763e+03  +7.3486e-01  -7.1584e-01
+8.1855e+03  +7.2796e-01  -7.4493e-01
+8.5068e+03  +7.1977e-01  -7.7424e-01
+8.8407e+03  +7.1047e-01  -8.0321e-01
+9.1878e+03  +7.0002e-01  -8.3254e-01
+9.5485e+03  +6.8901e-01  -8.6213e-01
+9.9233e+03  +6.7668e-01  -8.9144e-01
+1.0313e+04  +6.6395e-01  -9.2143e-01
+1.0718e+04  +6.4798e-01  -9.5310e-01
+1.1138e+04  +6.3377e-01  -9.8311e-01
+1.1576e+04  +6.1879e-01  -1.0132e+00
+1.2030e+04  +6.0346e-01  -1.0430e+00
+1.2502e+04  +5.8734e-01  -1.0728e+00
+1.2993e+04  +5.7076e-01  -1.1025e+00
+1.3503e+04  +5.5399e-01  -1.1316e+00
+1.4033e+04  +5.3617e-01  -1.1603e+00
+1.4584e+04  +5.1840e-01  -1.1883e+00
+1.5157e+04  +4.9970e-01  -1.2156e+00
+1.5752e+04  +4.8112e-01  -1.2407e+00
+1.6370e+04  +4.6208e-01  -1.2645e+00
+1.7013e+04  +4.4360e-01  -1.2847e+00
+1.7680e+04  +4.2601e-01  -1.3016e+00
+1.8374e+04  +4.0910e-01  -1.3159e+00
+1.9096e+04  +3.9180e-01  -1.3291e+00
+1.9845e+04  +3.7809e-01  -1.3376e+00
+2.0624e+04  +3.6569e-01  -1.3468e+00
+2.1434e+04  +3.5476e-01  -1.3565e+00
+2.2275e+04  +3.4501e-01  -1.3672e+00
+2.3150e+04  +3.3582e-01  -1.3809e+00
+2.4059e+04  +3.2705e-01  -1.3968e+00
+2.5003e+04  +3.1878e-01  -1.4150e+00
+2.5985e+04  +3.1023e-01  -1.4359e+00
+2.7005e+04  +3.0145e-01  -1.4586e+00
+2.8065e+04  +2.9253e-01  -1.4827e+00
+2.9166e+04  +2.8277e-01  -1.5077e+00
+3.0311e+04  +2.7335e-01  -1.5329e+00
+3.1501e+04  +2.6357e-01  -1.5579e+00
+3.2738e+04  +2.5379e-01  -1.5834e+00
+3.4023e+04  +2.4373e-01  -1.6073e+00
+3.5359e+04  +2.3370e-01  -1.6304e+00
+3.6747e+04  +2.2379e-01  -1.6515e+00
+3.8189e+04  +2.1417e-01  -1.6698e+00
+3.9688e+04  +2.0507e-01  -1.6872e+00
+4.1246e+04  +1.9633e-01  -1.7019e+00
+4.2865e+04  +1.8840e-01  -1.7151e+00
+4.4548e+04  +1.8113e-01  -1.7272e+00
+4.6297e+04  +1.7464e-01  -1.7406e+00
+4.8114e+04  +1.6867e-01  -1.7542e+00
+5.0003e+04  +1.6305e-01  -1.7709e+00
+5.1966e+04  +1.5765e-01  -1.7883e+00
+5.4006e+04  +1.5226e-01  -1.8074e+00
+5.6126e+04  +1.4709e-01  -1.8284e+00
+5.8329e+04  +1.4178e-01  -1.8493e+00
+6.0619e+04  +1.3645e-01  -1.8714e+00
+6.2999e+04  +1.3136e-01  -1.8908e+00
+6.5472e+04  +1.2650e-01  -1.9078e+00
+6.8042e+04  +1.2207e-01  -1.9258e+00
+7.0713e+04  +1.1790e-01  -1.9430e+00
+7.3489e+04  +1.1421e-01  -1.9617e+00
+7.6374e+04  +1.1086e-01  -1.9827e+00
+7.9372e+04  +1.0746e-01  -2.0061e+00
+8.2487e+04  +1.0418e-01  -2.0316e+00
+8.5726e+04  +1.0078e-01  -2.0576e+00
+8.9091e+04  +9.7555e-02  -2.0835e+00
+9.2588e+04  +9.4461e-02  -2.1082e+00
+9.6223e+04  +9.1514e-02  -2.1329e+00
+1.0000e+05  +8.8779e-02  -2.1597e+00
